# wavelength,transmittance
6.400000000000000000e+02,1.108356072974687068e-05,1.876247060038477603e-03
6.410000000000000000e+02,9.369405269783833256e-06,1.249605998511190818e-03
6.420000000000000000e+02,1.186643748868405623e-05,1.359255589495867236e-03
6.430000000000000000e+02,1.582309860910666993e-05,1.384765596617621884e-03
6.440000000000000000e+02,2.214156749484597324e-05,1.771690968789107990e-03
6.450000000000000000e+02,3.473936580837423384e-05,2.405612125212560921e-03
6.460000000000000000e+02,5.168772033789793390e-05,2.645274040146832015e-03
6.470000000000000000e+02,8.360283734510119214e-05,4.181186821026206153e-03
6.480000000000000000e+02,1.462917221501416865e-04,8.286193945413668216e-03
6.490000000000000000e+02,2.930737053424500057e-04,2.118559401903552866e-02
6.500000000000000000e+02,7.995334883676249354e-04,7.834223031357383238e-02
6.510000000000000000e+02,3.077507370748399154e-03,3.806334401462590500e-01
6.520000000000000000e+02,1.856192691334197439e-02,2.759638462834499428e+00
6.530000000000000000e+02,1.288502214521634603e-01,1.819221357772816461e+01
6.540000000000000000e+02,3.745932244001793365e-01,3.544946691397274208e+01
6.550000000000000000e+02,5.963311707144575147e-01,2.447173918600553577e+01
6.560000000000000000e+02,7.341670929581495253e-01,4.563673254311837901e+00
6.570000000000000000e+02,7.504578424516066271e-01,2.830475107350947095e-01
6.580000000000000000e+02,7.513282994702056294e-01,2.228427671899824714e-01
6.590000000000000000e+02,7.526982232896402003e-01,3.730062235784850633e-01
6.600000000000000000e+02,7.543719981359062743e-01,3.430705961451576691e-01
6.610000000000000000e+02,7.544524570060680002e-01,2.314666448470874549e-01
6.620000000000000000e+02,7.534692966599259023e-01,2.394572168193489503e-01
6.630000000000000000e+02,7.510757323387737827e-01,2.633026211472838662e-01
6.640000000000000000e+02,7.513122074236776582e-01,3.651127584235267509e-01
6.650000000000000000e+02,7.520513232938778048e-01,4.853583346665667486e-01
6.660000000000000000e+02,7.487433991299605740e-01,8.028102720626414390e-01
6.670000000000000000e+02,7.311158053313655536e-01,3.896093582699408753e+00
6.680000000000000000e+02,5.515675571136628985e-01,2.782516363819851790e+01
6.690000000000000000e+02,3.190098327167119607e-01,3.572478562218972797e+01
6.700000000000000000e+02,9.153254283465163399e-02,1.458155938071553237e+01
6.710000000000000000e+02,1.401752945012490342e-02,2.028413304242575155e+00
6.720000000000000000e+02,3.091774931771866519e-03,3.240756444618036469e-01
6.730000000000000000e+02,1.191191867453371368e-03,8.492104175840833880e-02
6.740000000000000000e+02,6.177091008933762589e-04,3.068648239893589924e-02
6.750000000000000000e+02,3.652321900553435899e-04,1.526658396166562064e-02
6.760000000000000000e+02,2.300445891546457999e-04,1.059946158342893463e-02
6.770000000000000000e+02,1.398809644881705589e-04,7.354480528112361179e-03
6.780000000000000000e+02,8.385104415745367489e-05,4.732052750374115754e-03
6.790000000000000000e+02,4.946508937614742832e-05,3.053661488254466854e-03
